Black Body Radiation Experiment Wed, Oct 19, 2022 11:36 AM
Sensor Position (Degrees)	Light Intensity (Volts)
0.00000	-0.03661
0.00000	-0.03500
0.00000	-0.03339
0.00000	-0.03339
0.00000	-0.03291
0.00000	-0.03178
0.00000	-0.03403
0.00000	-0.03532
0.00000	-0.03742
0.00000	-0.03339
0.00000	-0.03242
0.00000	-0.03516
0.00000	-0.03162
0.00000	-0.03484
0.00000	-0.03146
0.00000	-0.03677
0.00000	-0.03822
0.00000	-0.03645
0.00000	-0.03548
0.00000	-0.03484
0.00000	-0.03548
0.00000	-0.03774
0.00000	-0.03500
0.00000	-0.03564
0.00000	-0.03661
0.00000	-0.03742
0.00000	-0.03774
0.00000	-0.03693
0.00000	-0.03548
0.00000	-0.03194
0.00000	-0.03887
0.00000	-0.03645
0.00000	-0.03500
0.00000	-0.03468
0.00000	-0.03113
0.00000	-0.03516
0.00000	-0.03564
0.00000	-0.03564
0.00000	-0.03854
0.00000	-0.03226
0.00000	-0.03323
0.00000	-0.03210
0.00000	-0.03210
0.00000	-0.03597
0.00000	-0.03194
0.00000	-0.03484
0.00000	-0.03146
0.00000	-0.03307
0.00000	-0.03564
0.00000	-0.03758
0.00000	-0.03677
0.01035	-0.03178
0.02070	-0.03258
0.03104	-0.03516
0.05174	-0.03017
0.11383	-0.03339
0.18627	-0.03210
0.24836	-0.03758
0.33114	-0.03355
0.42428	-0.03371
0.52776	-0.03500
0.65194	-0.03967
0.79681	-0.03226
0.96238	-0.03258
1.09691	-0.03580
1.23144	-0.03806
1.37631	-0.03500
1.50049	-0.03580
1.64536	-0.03548
1.75919	-0.03645
1.87302	-0.03468
1.97651	-0.03371
2.09034	-0.03452
2.18347	-0.03178
2.29730	-0.03516
2.40078	-0.03403
2.51461	-0.03500
2.61809	-0.03484
2.73192	-0.03339
2.82506	-0.03274
2.92854	-0.03564
3.01133	-0.03774
3.11481	-0.03436
3.23899	-0.03178
3.35282	-0.03210
3.44595	-0.03355
3.54943	-0.03146
3.64257	-0.03387
3.71500	-0.03129
3.77709	-0.02968
3.85988	-0.03226
3.98406	-0.03709
4.07719	-0.03049
4.17032	-0.03355
4.26346	-0.03146
4.34624	-0.03629
4.42903	-0.03903
4.52216	-0.03548
4.61530	-0.03307
4.73947	-0.03725
4.83261	-0.03548
4.93609	-0.03387
5.01888	-0.03468
5.12236	-0.03629
5.22584	-0.03258
5.32932	-0.03387
5.45350	-0.03371
5.55698	-0.03274
5.66046	-0.03806
5.75360	-0.03307
5.84673	-0.03532
5.93986	-0.03355
6.05369	-0.03226
6.14683	-0.03387
6.22961	-0.03210
6.32275	-0.02920
6.41588	-0.03242
6.56076	-0.03242
6.65389	-0.03468
6.72633	-0.03419
6.84016	-0.03532
6.95399	-0.03403
7.06782	-0.03436
7.17130	-0.03242
7.26443	-0.03484
7.34722	-0.03532
7.44035	-0.03274
7.53349	-0.03742
7.63697	-0.03436
7.74045	-0.03564
7.83358	-0.03339
7.92672	-0.03210
7.99916	-0.03274
8.09229	-0.03419
8.19577	-0.03129
8.28891	-0.03162
8.37169	-0.03113
8.47517	-0.03274
8.56831	-0.03226
8.67179	-0.02968
8.78562	-0.02952
8.89945	-0.03146
9.01328	-0.03178
9.14781	-0.02823
9.27198	-0.02823
9.40651	-0.03291
9.48930	-0.02920
9.59278	-0.03274
9.68591	-0.03226
9.76870	-0.03129
9.86183	-0.03709
9.94462	-0.03065
10.02740	-0.03629
10.08949	-0.03001
10.16193	-0.03162
10.22402	-0.02984
10.29646	-0.02952
10.35854	-0.03049
10.42063	-0.03323
10.49307	-0.03210
10.59655	-0.03162
10.67934	-0.03162
10.77247	-0.03178
10.83456	-0.03790
10.92770	-0.03452
11.02083	-0.03178
11.12431	-0.03194
11.21744	-0.03355
11.32093	-0.03001
11.42441	-0.03387
11.52789	-0.03291
11.63137	-0.03484
11.76590	-0.03387
11.87973	-0.03371
11.98321	-0.03146
12.08669	-0.03371
12.20052	-0.03194
12.31435	-0.02936
12.41784	-0.03629
12.52132	-0.03452
12.60410	-0.03258
12.70758	-0.03097
12.81107	-0.02952
12.90420	-0.03146
12.98699	-0.03113
13.06977	-0.03307
13.14221	-0.03436
13.21465	-0.03178
13.30778	-0.03564
13.38022	-0.03033
13.46300	-0.02984
13.55614	-0.03419
13.65962	-0.03129
13.75275	-0.02968
13.84589	-0.02968
13.94937	-0.02775
14.05285	-0.03226
14.24947	-0.03081
14.39434	-0.02775
14.51852	-0.03274
14.63235	-0.03081
14.75653	-0.03709
14.89105	-0.03097
14.99454	-0.03436
15.10837	-0.03129
15.21185	-0.03113
15.32568	-0.03242
15.41881	-0.03194
15.51195	-0.03403
15.62578	-0.03484
15.70856	-0.03613
15.78100	-0.03033
15.85344	-0.03548
15.91553	-0.03564
15.96727	-0.03484
16.00866	-0.03436
16.06040	-0.03178
16.09144	-0.03629
16.13284	-0.03484
16.17423	-0.03274
16.20528	-0.03258
16.23632	-0.03532
16.26736	-0.03468
16.28806	-0.03162
16.31911	-0.03049
16.36050	-0.03258
16.39154	-0.03548
16.43294	-0.03178
16.47433	-0.03242
16.51572	-0.03403
16.56746	-0.03178
16.60885	-0.03194
16.65025	-0.03146
16.70199	-0.03355
16.74338	-0.03307
16.78477	-0.03113
16.83652	-0.02968
16.88826	-0.03339
16.95035	-0.03371
17.01243	-0.03017
17.06418	-0.03258
17.11592	-0.03033
17.17801	-0.03468
17.24009	-0.03484
17.30218	-0.03307
17.37462	-0.02936
17.44706	-0.03017
17.52984	-0.02920
17.61263	-0.03081
17.67472	-0.02839
17.75750	-0.03017
17.82994	-0.03049
17.91273	-0.03033
18.00586	-0.02968
18.07830	-0.03097
18.17143	-0.03339
18.24387	-0.03258
18.30596	-0.03355
18.39909	-0.02920
18.50257	-0.03242
18.60606	-0.02936
18.68884	-0.02694
18.79232	-0.03097
18.97859	-0.03194
19.08207	-0.03033
19.17521	-0.02952
19.27869	-0.02807
19.38217	-0.02598
19.46496	-0.02856
19.60983	-0.02598
19.70297	-0.02582
19.77540	-0.02356
19.85819	-0.02195
19.97202	-0.02388
20.04446	-0.02501
20.11689	-0.01841
20.17898	-0.01986
20.27212	-0.01518
20.35490	-0.00955
20.44804	-0.01696
20.57221	-0.01261
20.65500	-0.00890
20.75848	-0.00487
20.90336	-0.00439
21.01719	-0.00085
21.11032	0.00254
21.23450	0.00689
21.36902	0.01494
21.50355	0.01865
21.65877	0.01929
21.80365	0.02477
21.93818	0.02622
22.09340	0.02783
22.23827	0.03057
22.40384	0.03653
22.57976	0.03717
22.74534	0.03637
22.87986	0.03443
22.99369	0.03363
23.12822	0.02670
23.25240	0.02332
23.37657	0.01591
23.51110	0.01140
23.65598	0.01397
23.79050	0.00737
23.94573	0.00109
24.09060	-0.00262
24.20443	-0.00487
24.31826	-0.00745
24.43209	-0.01406
24.54592	-0.01535
24.64940	-0.01776
24.76323	-0.02018
24.85637	-0.02678
24.95985	-0.02437
25.04263	-0.02308
25.14612	-0.02807
25.23925	-0.02388
25.35308	-0.02630
25.46691	-0.02872
25.56004	-0.02340
25.66353	-0.02791
25.78770	-0.02856
25.94293	-0.03017
26.05676	-0.02759
26.16024	-0.03065
26.27407	-0.03033
26.37755	-0.02807
26.50173	-0.02984
26.60521	-0.02823
26.72939	-0.02984
26.83287	-0.03419
26.93635	-0.03178
27.06053	-0.03065
27.16401	-0.03001
27.26750	-0.02984
27.37098	-0.02856
27.47446	-0.03129
27.56759	-0.02904
27.68142	-0.02678
27.78491	-0.02823
27.89874	-0.02936
28.01257	-0.03033
28.11605	-0.03258
28.24023	-0.03339
28.35406	-0.02614
28.45754	-0.02839
28.56102	-0.02984
28.67485	-0.02952
28.81973	-0.02904
28.94390	-0.02791
29.07843	-0.03097
29.20261	-0.03049
29.30609	-0.02920
29.41992	-0.02920
29.53375	-0.03162
29.60619	-0.03001
29.68897	-0.02823
29.75106	-0.02839
29.81315	-0.02598
29.86489	-0.02421
29.91663	-0.02920
29.95803	-0.02501
30.02012	-0.02501