Black Body Radiation Experiment Wed, Oct 19, 2022 11:07 AM
Sensor Position (Degrees)	Light Intensity (Volts)
0.00000	-0.02856
0.00000	-0.03178
0.00000	-0.03291
0.00000	-0.03129
0.00000	-0.02791
0.00000	-0.02968
0.00000	-0.02678
0.00000	-0.03065
0.00000	-0.02856
0.00000	-0.02791
0.00000	-0.02807
0.00000	-0.03178
0.00000	-0.02453
0.00000	-0.02968
0.00000	-0.03129
0.00000	-0.03162
0.00000	-0.02662
0.00000	-0.02421
0.00000	-0.02807
0.00000	-0.02984
0.00000	-0.02920
0.00000	-0.02372
0.00000	-0.02227
0.00000	-0.03113
0.00000	-0.02920
0.00000	-0.02517
0.00000	-0.03049
0.00000	-0.03194
0.00000	-0.02936
0.00000	-0.02598
0.00000	-0.02856
0.00000	-0.02984
0.00000	-0.03355
0.00000	-0.03017
0.00000	-0.03162
0.00000	-0.02678
0.00000	-0.03033
0.00000	-0.02872
0.00000	-0.02533
0.00000	-0.02678
0.00000	-0.03033
0.00000	-0.03081
0.00000	-0.02791
0.00000	-0.02372
0.00000	-0.02839
0.00000	-0.03258
0.00000	-0.02775
0.00000	-0.02308
0.00000	-0.02775
0.00000	-0.02549
0.00000	-0.03017
0.00000	-0.02856
0.00000	-0.02872
0.00000	-0.02807
0.00000	-0.02920
0.00000	-0.03065
0.00000	-0.02356
0.00000	-0.02517
0.00000	-0.02646
0.00000	-0.03226
0.00000	-0.02694
0.00000	-0.02743
0.00000	-0.02984
0.00000	-0.03129
0.00000	-0.02598
0.00000	-0.02968
0.00000	-0.02920
0.00000	-0.02453
0.00000	-0.02517
0.00000	-0.02340
0.00000	-0.02952
0.00000	-0.02517
0.00000	-0.02791
0.00000	-0.02743
0.00000	-0.02711
0.00000	-0.02743
0.01035	-0.02533
0.01035	-0.02968
0.01035	-0.02759
0.01035	-0.02582
0.02070	-0.02952
0.02070	-0.02872
0.02070	-0.03178
0.03104	-0.02662
0.03104	-0.02646
0.03104	-0.02276
0.04139	-0.03065
0.04139	-0.02920
0.06209	-0.02598
0.13453	-0.02807
0.44497	-0.02646
0.78646	-0.02711
1.22109	-0.02582
1.53153	-0.02646
1.86268	-0.02630
2.28695	-0.02533
2.77332	-0.03081
3.21829	-0.02421
3.65291	-0.02727
4.04614	-0.02308
4.40833	-0.02968
4.73947	-0.03081
4.96713	-0.02566
5.15340	-0.02727
5.28793	-0.02598
5.43280	-0.02856
5.51559	-0.02711
5.61907	-0.03113
5.69151	-0.02904
5.73290	-0.02791
5.78464	-0.02678
5.83638	-0.02163
5.88812	-0.02485
6.01230	-0.02952
6.05369	-0.03017
6.16752	-0.02839
6.21927	-0.02259
6.33310	-0.02582
6.41588	-0.02437
6.49867	-0.02759
6.62285	-0.02308
6.65389	-0.02195
6.75737	-0.02243
6.76772	-0.02356
6.85051	-0.02791
6.89190	-0.02598
6.98503	-0.02276
7.06782	-0.02469
7.14026	-0.02340
7.22304	-0.02469
7.31617	-0.02727
7.45070	-0.02566
7.55418	-0.02598
7.70941	-0.02372
7.82324	-0.02711
7.96811	-0.02598
8.09229	-0.02582
8.20612	-0.02517
8.35099	-0.02372
8.48552	-0.02372
8.59935	-0.02372
8.68214	-0.02727
8.78562	-0.02098
8.87875	-0.02372
9.02363	-0.02936
9.09606	-0.02598
9.16850	-0.02259
9.23059	-0.02437
9.30303	-0.02614
9.38581	-0.02598
9.44790	-0.02082
9.50999	-0.02388
9.59278	-0.02388
9.68591	-0.02533
9.75835	-0.02195
9.85148	-0.02775
9.97566	-0.02727
10.07914	-0.02614
10.20332	-0.02872
10.35854	-0.02711
10.51377	-0.02566
10.64829	-0.02711
10.79317	-0.03049
10.95874	-0.02711
11.13466	-0.02533
11.24849	-0.02404
11.36232	-0.02711
11.47615	-0.02227
11.58998	-0.02517
11.70381	-0.02662
11.79694	-0.02404
11.92112	-0.02308
12.01426	-0.02566
12.11774	-0.02630
12.19018	-0.02582
12.27296	-0.02727
12.33505	-0.02549
12.38679	-0.03033
12.44888	-0.02727
12.51097	-0.02727
12.57306	-0.02711
12.61445	-0.02549
12.66619	-0.02533
12.70758	-0.02195
12.73863	-0.02630
12.79037	-0.02984
12.82141	-0.02743
12.85246	-0.02904
12.87316	-0.02888
12.88350	-0.02694
12.90420	-0.02791
12.90420	-0.02936
12.90420	-0.02711
12.91455	-0.02453
12.91455	-0.02388
12.92490	-0.02501
12.92490	-0.02759
12.93525	-0.02646
12.94559	-0.02839
12.96629	-0.03017
12.98699	-0.02582
13.00768	-0.02678
13.02838	-0.02308
13.05942	-0.02759
13.09047	-0.02791
13.12151	-0.02936
13.15256	-0.03178
13.19395	-0.02485
13.23534	-0.02533
13.26639	-0.02485
13.30778	-0.02759
13.34917	-0.02775
13.40091	-0.02759
13.44231	-0.03049
13.48370	-0.02936
13.52509	-0.02743
13.57683	-0.02131
13.63892	-0.02485
13.71136	-0.02678
13.77345	-0.02904
13.84589	-0.02549
13.91832	-0.02711
13.99076	-0.02646
14.05285	-0.02211
14.11494	-0.02163
14.16668	-0.02630
14.21842	-0.02227
14.27016	-0.02388
14.31156	-0.02678
14.34260	-0.02968
14.39434	-0.02485
14.43573	-0.02630
14.47713	-0.02630
14.51852	-0.02614
14.55991	-0.02856
14.61165	-0.02469
14.65305	-0.02936
14.70479	-0.02227
14.76688	-0.02566
14.81862	-0.02421
14.88071	-0.02872
14.93245	-0.02952
14.98419	-0.02195
15.03593	-0.02694
15.08767	-0.02388
15.14976	-0.02678
15.20150	-0.02098
15.24289	-0.02356
15.27394	-0.02501
15.29463	-0.02469
15.31533	-0.02292
15.33603	-0.02243
15.35672	-0.02566
15.35672	-0.02517
15.37742	-0.02292
15.39812	-0.02243
15.41881	-0.02437
15.43951	-0.02614
15.46020	-0.02501
15.49125	-0.02195
15.53264	-0.01937
15.60508	-0.02131
15.67752	-0.01647
15.71891	-0.02549
15.77065	-0.01680
15.82239	-0.02227
15.86378	-0.02147
15.91553	-0.02034
15.93622	-0.02404
15.97761	-0.02211
16.01901	-0.02404
16.05005	-0.02098
16.09144	-0.02227
16.13284	-0.02147
16.16388	-0.02259
16.19493	-0.02034
16.21562	-0.02115
16.24667	-0.02259
16.26736	-0.02082
16.29841	-0.02131
16.31911	-0.01986
16.33980	-0.01905
16.36050	-0.02082
16.37085	-0.02002
16.39154	-0.02308
16.40189	-0.02066
16.42259	-0.02388
16.44328	-0.02082
16.47433	-0.02131
16.49502	-0.01873
16.52607	-0.01792
16.56746	-0.01970
16.60885	-0.02002
16.67094	-0.02340
16.73303	-0.02002
16.80547	-0.02163
16.89860	-0.02179
16.99174	-0.02082
17.06418	-0.01986
17.14696	-0.02356
17.22975	-0.02147
17.30218	-0.02308
17.37462	-0.01760
17.44706	-0.01986
17.49880	-0.02018
17.55054	-0.01986
17.59193	-0.02002
17.63333	-0.02195
17.65402	-0.02131
17.68507	-0.02485
17.71611	-0.01583
17.74716	-0.01873
17.77820	-0.02082
17.80925	-0.01696
17.84029	-0.01615
17.87133	-0.01470
17.90238	-0.01857
17.97482	-0.01696
18.02656	-0.01873
18.08865	-0.01760
18.15074	-0.01486
18.22317	-0.01680
18.29561	-0.01953
18.36805	-0.01921
18.45083	-0.01261
18.52327	-0.01518
18.62675	-0.01808
18.70954	-0.01373
18.78198	-0.01535
18.87511	-0.01438
18.97859	-0.01132
19.05103	-0.01583
19.18556	-0.01019
19.26834	-0.00922
19.37182	-0.00777
19.49600	-0.01132
19.59948	-0.00230
19.67192	-0.00326
19.76505	-0.00294
19.81680	0.00221
19.87888	0.00060
19.96167	-0.00085
20.01341	0.00511
20.08585	0.00221
20.17898	0.00689
20.24107	0.00640
20.36525	0.01494
20.45838	0.01639
20.61361	0.01397
20.76883	0.01655
20.89301	0.02090
21.01719	0.02557
21.19311	0.03540
21.40007	0.04313
21.59669	0.04571
21.78295	0.05505
21.97957	0.05602
22.11410	0.05586
22.22793	0.05666
22.32106	0.05731
22.41419	0.05312
22.48663	0.05425
22.55907	0.04748
22.62116	0.04942
22.67290	0.04410
22.72464	0.04378
22.77638	0.03685
22.82812	0.03911
22.87986	0.04184
22.92125	0.03347
22.97300	0.03137
23.02474	0.02606
23.08683	0.02751
23.13857	0.02412
23.19031	0.02138
23.24205	0.01977
23.30414	0.02026
23.37657	0.01768
23.44901	0.01381
23.54215	0.01091
23.62493	0.00640
23.73876	0.00979
23.83190	0.00592
23.92503	0.00366
24.01816	0.00270
24.12165	-0.00246
24.21478	-0.00230
24.31826	-0.00552
24.42174	-0.00777
24.53557	-0.01164
24.62871	-0.00890
24.71149	-0.01035
24.79428	-0.01341
24.88741	-0.01196
24.94950	-0.01309
25.03229	-0.01551
25.12542	-0.01551
25.21855	-0.01567
25.30134	-0.01341
25.41517	-0.01631
25.50830	-0.01390
25.61179	-0.01277
25.69457	-0.01857
25.78770	-0.01744
25.84979	-0.02115
25.92223	-0.01712
25.99467	-0.01631
26.06711	-0.01599
26.13954	-0.01615
26.20163	-0.01825
26.27407	-0.01712
26.36720	-0.02066
26.46034	-0.02018
26.55347	-0.01760
26.63626	-0.01615
26.73974	-0.01535
26.86392	-0.01953
26.96740	-0.01696
27.08123	-0.01535
27.17436	-0.01567
27.27784	-0.01148
27.37098	-0.01937
27.45376	-0.01712
27.54690	-0.01921
27.65038	-0.01744
27.73317	-0.02050
27.81595	-0.02050
27.88839	-0.02018
27.95048	-0.01518
28.02292	-0.01373
28.08500	-0.01454
28.14709	-0.01841
28.20918	-0.02018
28.27127	-0.01986
28.34371	-0.01261
28.40580	-0.01825
28.46789	-0.01422
28.54032	-0.01712
28.61276	-0.01728
28.68520	-0.01422
28.75764	-0.01599
28.84042	-0.01841
28.90251	-0.01551
28.96460	-0.01712
29.03704	-0.01905
29.08878	-0.01454
29.15087	-0.01712
29.21296	-0.01422
29.26470	-0.01454
29.34748	-0.01712
29.40957	-0.01293
29.47166	-0.01615
29.54410	-0.01438
29.60619	-0.01728
29.67863	-0.01309
29.76141	-0.02066
29.86489	-0.01921
29.94768	-0.01889
30.03047	-0.01760
30.13395	-0.01470
30.22708	-0.01905
30.33056	-0.01792
30.43404	-0.01454
30.54787	-0.01518
30.65136	-0.01615
30.76519	-0.01744
30.86867	-0.01776
30.99285	-0.01599
31.11703	-0.02050
31.25155	-0.01937
31.36538	-0.02050
31.47921	-0.01760
31.60339	-0.01454
31.71722	-0.01406
31.82070	-0.01486
31.92418	-0.01325
32.01732	-0.01970
32.12080	-0.01921
32.22428	-0.01808
32.33811	-0.01696
32.45194	-0.02195
32.55542	-0.01728
32.66926	-0.01953
32.76239	-0.01808
32.86587	-0.01921
32.96935	-0.01986
33.07283	-0.01841
33.16597	-0.01518
33.27980	-0.01470
33.38328	-0.01937
33.49711	-0.01792
33.59024	-0.02147
33.68338	-0.01583
33.78686	-0.01857
33.87999	-0.01760
33.97313	-0.02050
34.07661	-0.02163
34.16974	-0.02050
34.27323	-0.01889
34.35601	-0.01744
34.44914	-0.01647
34.54228	-0.01760
34.63541	-0.01518
34.72855	-0.01873
34.82168	-0.01535
34.91481	-0.01760
35.01830	-0.01953
35.11143	-0.01696
35.21491	-0.01696
35.29770	-0.01825
35.39083	-0.01808
35.49431	-0.01228
35.59779	-0.01712
35.70128	-0.01357
35.81511	-0.01696
35.92894	-0.01728
36.03242	-0.01808
36.14625	-0.01647
36.27043	-0.01921
36.37391	-0.01599
36.48774	-0.01873
36.60157	-0.02356
36.70505	-0.01599
36.80853	-0.01631
36.90167	-0.01776
37.02585	-0.01083
37.16037	-0.01744
37.29490	-0.01841
37.42943	-0.01792
37.57430	-0.02115
37.70883	-0.01792
37.85370	-0.01808
37.99858	-0.02179
38.13310	-0.01567
38.26763	-0.01647
38.38146	-0.01647
38.49529	-0.01889
38.57808	-0.01454
38.70225	-0.01776
38.80574	-0.01760
38.90922	-0.01583
39.00235	-0.01728
39.09548	-0.01454
39.20932	-0.01712
39.32315	-0.01744
39.43698	-0.01470
39.56115	-0.01728
39.67498	-0.01680
39.77847	-0.01857
39.89230	-0.01970
39.99578	-0.01535
40.10961	-0.01857
40.24413	-0.01776
40.36831	-0.02082
40.49249	-0.01808
40.59597	-0.01680
40.72015	-0.01599
40.87537	-0.02082
40.99955	-0.01728
41.14443	-0.01647
41.28930	-0.01663
41.45487	-0.01438
41.57905	-0.01502
41.72393	-0.01551
41.84811	-0.01921
41.96194	-0.01825
42.09646	-0.01792
42.23099	-0.01680
42.34482	-0.01792
42.45865	-0.01518
42.56213	-0.02018
42.65526	-0.01728
42.74840	-0.01841
42.83118	-0.02002
42.92432	-0.01808
43.01745	-0.01663
43.13128	-0.01631
43.22442	-0.01937
43.33825	-0.01663
43.45208	-0.01277
43.56591	-0.01486
43.72113	-0.01486
43.86600	-0.02002
43.96949	-0.01551
44.10401	-0.01663
44.22819	-0.01599
44.34202	-0.02050
44.46620	-0.01277
44.54898	-0.01841
44.60073	-0.01857
44.67316	-0.01744
44.76630	-0.01390
44.88013	-0.01792
44.99396	-0.01680
45.10779	-0.01776
45.24231	-0.02050
45.38719	-0.02211
45.51137	-0.01696
45.65624	-0.01406
45.80112	-0.01712
45.93564	-0.01825
46.05982	-0.01744
46.17365	-0.01535
46.29783	-0.01776
46.44270	-0.01535
46.55653	-0.01615
46.62897	-0.01921
46.70141	-0.01325
46.74280	-0.01599
46.82559	-0.01825
46.88768	-0.01567
46.94977	-0.02002
47.02220	-0.01970
47.08429	-0.01599
47.14638	-0.01905
47.21882	-0.01889
47.29126	-0.01535
47.38439	-0.01712
47.46718	-0.01567
47.58101	-0.01728
47.68449	-0.01808
47.80867	-0.01921
47.91215	-0.01631
48.02598	-0.01744
48.13981	-0.01615
48.23294	-0.02002
48.34677	-0.01696
48.45025	-0.01841
48.56408	-0.01728
48.66757	-0.01567
48.77105	-0.01680
48.87453	-0.02050
48.98836	-0.01599
49.09184	-0.01986
49.17463	-0.01663
49.25741	-0.01921
49.32985	-0.01438
49.39194	-0.01712
49.47473	-0.01937
49.54716	-0.01277
49.61960	-0.01422
49.68169	-0.01680
49.75413	-0.01309
49.82656	-0.02002
49.91970	-0.02050
50.01283	-0.02227
50.10597	-0.01873
50.20945	-0.01599
50.31293	-0.01744
50.41641	-0.01760
50.51989	-0.01341
50.63372	-0.01970
50.73721	-0.01808
50.84069	-0.01325
50.94417	-0.01744
51.05800	-0.01341
51.17183	-0.01680
51.29601	-0.01357
51.42019	-0.01712
51.53402	-0.01567
51.64785	-0.01454
51.77203	-0.01470
51.88586	-0.01406
51.99969	-0.01615
52.14456	-0.01744
52.25839	-0.01647
52.40327	-0.01486
52.52744	-0.01647
52.65162	-0.01454
52.76545	-0.01937
52.86893	-0.01422
52.97242	-0.01712
53.08625	-0.01921
53.16903	-0.01535
53.28286	-0.01857
53.38634	-0.01406
53.48983	-0.01454
53.59331	-0.01373
53.68644	-0.01696
53.77958	-0.01615
53.86236	-0.01438
53.94515	-0.01454
54.00724	-0.01518
54.07967	-0.01470
54.15211	-0.01261
54.22455	-0.01663
54.28664	-0.01261
54.35907	-0.01518
54.44186	-0.01357
54.51430	-0.01341
54.59708	-0.01792
54.69022	-0.01245
54.78335	-0.01422
54.89718	-0.01583
55.00066	-0.01486
55.11449	-0.01663
55.22832	-0.01583
55.34215	-0.01196
55.43529	-0.01599
55.52842	-0.01357
55.62155	-0.01390
55.71469	-0.01663
55.79747	-0.01535
55.88026	-0.01808
55.96304	-0.01583
56.04583	-0.01228
56.11827	-0.01390
56.20105	-0.01406
56.27349	-0.00971
56.34593	-0.01325
56.41837	-0.01148
56.49080	-0.01406
56.54254	-0.01341
56.59428	-0.01164
56.65637	-0.01261
56.71846	-0.00842
56.78055	-0.01486
56.84264	-0.01309
56.89438	-0.01373
56.95647	-0.00987
57.01856	-0.01390
57.07030	-0.01164
57.12204	-0.00826
57.16344	-0.00987
57.21518	-0.01083
57.25657	-0.01261
57.30831	-0.01196
57.36005	-0.01535
57.42214	-0.00922
57.48423	-0.01309
57.56701	-0.01196
57.64980	-0.01003
57.73259	-0.01132
57.83607	-0.01228
57.94990	-0.00777
58.07408	-0.01148
58.18791	-0.01100
58.30174	-0.00922
58.43626	-0.00794
58.53975	-0.00971
58.65358	-0.01341
58.75706	-0.01277
58.87089	-0.01148
58.97437	-0.01486
59.06750	-0.01035
59.16064	-0.00874
59.26412	-0.00794
59.33656	-0.00810
59.39865	-0.01003
59.46073	-0.01196
59.51248	-0.01035
59.56422	-0.00938
59.62631	-0.00858
59.68840	-0.00810
59.75048	-0.01148
59.80223	-0.00794
59.87466	-0.00665
59.95745	-0.00874
60.01954	-0.00794
60.10232	-0.00971
60.19546	-0.00729
60.28859	-0.00504
60.37138	-0.00246
60.45416	-0.00552
60.52660	-0.00342
60.60938	-0.00616
60.69217	-0.00777
60.77496	-0.00794
60.85774	-0.00761
60.95088	-0.00504
61.06471	-0.00890
61.15784	-0.00455
61.26132	-0.00504
61.38550	-0.00616
61.50968	-0.00520
61.61316	-0.00777
61.72699	-0.00439
61.84082	-0.01019
61.95465	-0.00697
62.07883	-0.00955
62.16161	-0.00278
62.27544	-0.00310
62.36858	-0.00471
62.46171	-0.00214
62.55485	-0.00439
62.66868	-0.00149
62.79285	-0.00616
62.89634	-0.00665
63.02051	-0.00214
63.13434	-0.00777
63.24817	-0.00230
63.37235	-0.00375
63.48618	-0.00713
63.61036	-0.00359
63.73454	-0.00536
63.82767	-0.00729
63.92081	-0.00665
64.01394	-0.00536
64.09673	-0.00649
64.18986	-0.00439
64.27265	-0.00455
64.36578	-0.00246
64.45891	-0.00375
64.55205	-0.00439
64.64518	-0.00359
64.73831	-0.00326
64.84180	-0.00568
64.93493	-0.00391
65.03841	-0.00342
65.13155	-0.00004
65.21433	-0.00326
65.30747	-0.00439
65.40060	-0.00294
65.50408	-0.00407
65.61791	-0.00294
65.72139	-0.00697
65.82488	-0.00149
65.92836	-0.00101
66.04219	-0.00133
66.17671	-0.00552
66.30089	-0.00294
66.42507	-0.00165
66.54925	-0.00230
66.66308	-0.00552
66.78726	-0.00552
66.91144	-0.00342
67.01492	-0.00471
67.11840	-0.00133
67.22188	-0.00294
67.30467	-0.00085
67.37710	-0.00391
67.47024	-0.00230
67.55302	-0.00423
67.63581	-0.00359
67.70825	-0.00536
67.78068	-0.00197
67.85312	-0.00504
67.92556	-0.00149
67.99800	-0.00294
68.07043	-0.00520
68.15322	-0.00278
68.23601	-0.00278
68.30844	-0.00326
68.39123	-0.00568
68.48436	-0.00439
68.59819	-0.00504
68.71202	-0.00181
68.82585	-0.00214
68.95003	-0.00101
69.04316	-0.00197
69.15699	-0.00520
69.27082	-0.00197
69.38465	-0.00455
69.49849	-0.00423
69.59162	-0.00342
69.70545	-0.00552
69.81928	0.00028
69.93311	-0.00520
70.03659	-0.00214
70.16077	-0.00262
70.28495	-0.00504
70.40913	0.00238
70.50226	-0.00342
70.60574	-0.00375
70.71957	-0.00455
70.83340	-0.00487
70.94723	-0.00036
71.07141	-0.00342
71.18524	0.00334
71.28872	-0.00149
71.39220	-0.00455
71.47499	0.00012
71.56812	-0.00085
71.67161	-0.00600
71.79578	-0.00584
71.88892	-0.00197
71.98205	-0.00069
72.09588	-0.00036
72.19936	-0.00181
72.30285	-0.00310
72.41668	-0.00326
72.55120	-0.00117
72.65468	-0.00278
72.77886	-0.00197
72.92374	-0.00246
73.06861	-0.00439
73.21349	-0.00487
73.35836	-0.00101
73.52393	-0.00504
73.66881	-0.00036
73.83438	-0.00342
73.96891	-0.00133
74.10343	-0.00310
74.22761	-0.00069
74.33109	0.00270
74.43457	-0.00455
74.52771	-0.00246
74.62084	-0.00052
74.71398	-0.00004
74.80711	0.00044
74.90024	-0.00149
74.99338	0.00189
75.08651	0.00109
75.16930	-0.00262
75.25208	-0.00020
75.34522	-0.00310
75.45905	-0.00375
75.54183	-0.00246
75.62462	-0.00342
75.71775	-0.00069
75.80054	-0.00294
75.88332	-0.00246
75.95576	-0.00133
76.02820	-0.00294
76.11098	-0.00020
76.19377	-0.00101
76.25586	0.00012
76.34899	0.00076
76.42143	-0.00342
76.51456	-0.00375
76.61804	-0.00520
76.71118	0.00012
76.82501	-0.00359
76.93884	-0.00568
77.04232	0.00157
77.15615	0.00109
77.25963	-0.00181
77.36311	-0.00375
77.44590	-0.00036
77.54938	-0.00101
77.64252	0.00415
77.72530	-0.00455
77.81843	-0.00375
77.89087	0.00238
77.98401	-0.00117
78.06679	-0.00085
78.15993	0.00221
78.25306	0.00334
78.33584	-0.00036
78.42898	0.00318
78.53246	-0.00069
78.65664	0.00318
78.76012	0.00157
78.87395	0.00383
78.98778	0.01011
79.08091	0.00656
79.18440	0.00544
79.27753	0.00254
79.37066	0.00238
79.46380	0.00366
79.56728	-0.00036
79.66041	0.00318
79.74320	-0.00020
79.83633	0.00141
79.92947	0.00125
80.00190	-0.00133